1/3 octave (Sxx)
Frequency (Hz)	Level (dBC)
6,30000E+1	6,49622E+1
8,00000E+1	6,73501E+1
1,00000E+2	6,91473E+1
1,25000E+2	7,06548E+1
1,60000E+2	7,46806E+1
2,00000E+2	7,97879E+1
2,50000E+2	8,05983E+1
3,15000E+2	7,64775E+1
4,00000E+2	7,36074E+1
5,00000E+2	7,30742E+1
6,30000E+2	7,52192E+1
8,00000E+2	7,31794E+1
1,00000E+3	7,12838E+1
1,25000E+3	7,02151E+1
1,60000E+3	6,83043E+1
2,00000E+3	6,14141E+1
2,50000E+3	6,09004E+1
3,15000E+3	6,06067E+1
4,00000E+3	6,50926E+1
5,00000E+3	6,75142E+1
6,30000E+3	6,28253E+1
8,00000E+3	4,83680E+1

Correction factor for total and delta total computation : 	N/A
Total : 	86,435493
