1/3 octave (Sxx)
Frequency (Hz)	Level (dBC)
6,30000E+1	5,44295E+1
8,00000E+1	5,65824E+1
1,00000E+2	5,89026E+1
1,25000E+2	6,17321E+1
1,60000E+2	6,68310E+1
2,00000E+2	7,26344E+1
2,50000E+2	7,35552E+1
3,15000E+2	6,99691E+1
4,00000E+2	6,75575E+1
5,00000E+2	6,60157E+1
6,30000E+2	6,40267E+1
8,00000E+2	6,27991E+1
1,00000E+3	6,07712E+1
1,25000E+3	5,78822E+1
1,60000E+3	5,50400E+1
2,00000E+3	5,64188E+1
2,50000E+3	5,35857E+1
3,15000E+3	4,89332E+1
4,00000E+3	5,14184E+1
5,00000E+3	5,52535E+1
6,30000E+3	5,10611E+1
8,00000E+3	4,16551E+1

Correction factor for total and delta total computation : 	N/A
Total : 	78,685224
